# SrXgui configration #
[Experiment]
maskfile = 
integrationspace = qspace
wavelength = 0.18333
xbeamcenter = 1019.877
ybeamcenter = 1026.537
distance = 208.391
rotationd = 58.491
tiltd = 0.409
tthstepd = 0.02
qstep = 0.02

[Beamline]
fliphorizontal = False
flipvertical = False
xdimension = 2048
ydimension = 2048
xpixelsize = 0.2
ypixelsize = 0.2

[Others]
uncertaintyenable = True
sacorrectionenable = True
polcorrectionenable = True
polcorrectf = 0.99
brightpixelmask = True
darkpixelmask = True
avgmask = False
cropedges = 10, 10, 10, 10

#### start data
0 0 0
0.02 0 0
0.04 2865.27 1241.01
0.06 4175.34 1498.09
0.08 14754.7 2816.16
0.1 10759.3 2404.83
0.12 13977 2740.93
0.14 9785.62 2293.43
0.16 10121 2332.39
0.18 13747.6 2718.35
0.2 13990 2742.21
0.22 10971.8 2428.45
0.24 16105.5 2942.24
0.26 15893.1 2922.77
0.28 18446.9 3148.85
0.3 19684 3252.73
0.32 21956.5 3435.36
0.34 22029.6 3441.07
0.36 23495.8 3553.75
0.38 25426.2 3696.85
0.4 33466.4 4241.27
0.42 50442.5 5207.03
0.44 89437.3 6933.47
0.46 116853 7925.23
0.48 138967 8642.64
0.5 169743 9551.82
0.52 206763 10542.1
0.54 231554 11156.2
0.56 274093 12137.8
0.58 304148 12786
0.6 343779 13593.5
0.62 384229 14371
0.64 422639 15072.2
0.66 457985 15689.8
0.68 517460 16677.4
0.7 578045 17626.7
0.72 705767 19477
0.74 900701 22003
0.76 1.11841e+06 24518.3
0.78 1.37117e+06 27148
0.8 1.51389e+06 28525.8
0.82 1.50898e+06 28479.6
0.84 1.36661e+06 27102.7
0.86 1.15856e+06 24954.6
0.88 973387 22873.6
0.9 776344 20427.7
0.92 675142 19049.7
0.94 641439 18568.1
0.96 620454 18261.9
0.98 647220 18651.6
1 670238 18980.4
1.02 689086 19245.4
1.04 680880 19130.5
1.06 634024 18460.6
1.08 594050 17869.1
1.1 562285 17384.8
1.12 528328 16851.7
1.14 532292 16914.7
1.16 517512 16678.2
1.18 524489 16790.4
1.2 524535 16791
1.22 510144 16559.1
1.24 510622 16567
1.26 492027 16262.4
1.28 489014 16212.5
1.3 489039 16213
1.32 479709 16057.6
1.34 488121 16197.8
1.36 487007 16179.3
1.38 492588 16271.6
1.4 498401 16367.5
1.42 488068 16196.9
1.44 480885 16077.3
1.46 475066 15979.7
1.48 465405 15816.4
1.5 475612 15988.9
1.52 471612 15921.5
1.54 488027 16196.1
1.56 504630 16469.4
1.58 512749 16601.4
1.6 541394 17058.6
1.62 548171 17165.1
1.64 564361 17416.8
1.66 573083 17550.9
1.68 567312 17462.4
1.7 562941 17395
1.72 534880 16955.8
1.74 512086 16590.6
1.76 497794 16357.6
1.78 471940 15927
1.8 467246 15847.6
1.82 458131 15692.2
1.84 453851 15618.8
1.86 459156 15709.7
1.88 450514 15561.3
1.9 459562 15716.7
1.92 467070 15844.6
1.94 472872 15942.7
1.96 490150 16231.4
1.98 492066 16263.1
2 507959 16523.6
2.02 527433 16837.4
2.04 538743 17017
2.06 560979 17364.6
2.08 557360 17308.5
2.1 548791 17174.9
2.12 540054 17037.6
2.14 522942 16765.5
2.16 519965 16717.7
2.18 514900 16636.2
2.2 512830 16602.8
2.22 518052 16687.1
2.24 508369 16530.4
2.26 501533 16418.8
2.28 487127 16181
2.3 471827 15925.1
2.32 467496 15852
2.34 458842 15704.4
2.36 459323 15712.7
2.38 459301 15712.2
2.4 449906 15550.7
2.42 444812 15462.5
2.44 429929 15201.8
2.46 423057 15079.7
2.48 420052 15025.9
2.5 410107 14846.9
2.52 409215 14830.9
2.54 402293 14704.9
2.56 399550 14654.6
2.58 404306 14741.7
2.6 401019 14681.7
2.62 411136 14865.6
2.64 415916 14951.9
2.66 417606 14982
2.68 425438 15122
2.7 417633 14982.7
2.72 415950 14952.3
2.74 414900 14933.7
2.76 407721 14803.7
2.78 413746 14912.7
2.8 409409 14834.5
2.82 411517 14872.5
2.84 415716 14948.1
2.86 411065 14864.4
2.88 412534 14890.9
2.9 407546 14800.6
2.92 402037 14700.1
2.94 403912 14734.4
2.96 394200 14556.4
2.98 391317 14502.8
3 391426 14504.9
3.02 386577 14414.8
3.04 390386 14485.7
3.06 387132 14425.2
3.08 386502 14413.5
3.1 388673 14453.8
3.12 382807 14344.3
3.14 383278 14353.2
3.16 378337 14260.4
3.18 374179 14181.8
3.2 370646 14114.5
3.22 362037 13949.8
3.24 355676 13826.7
3.26 352010 13755.3
3.28 345373 13624.9
3.3 347173 13660.3
3.32 342597 13570.1
3.34 341460 13547.3
3.36 341704 13552.4
3.38 336153 13442
3.4 336778 13454.2
3.42 331231 13343.1
3.44 329405 13306.5
3.46 329416 13306.4
3.48 326712 13251.7
3.5 329316 13304.6
3.52 331694 13352.4
3.54 333438 13387.6
3.56 337121 13461.3
3.58 337128 13461.3
3.6 337144 13461.8
3.62 338234 13483.4
3.64 335489 13428.5
3.66 335296 13424.9
3.68 329770 13313.7
3.7 327458 13266.8
3.72 324709 13211.3
3.74 319856 13111.9
3.76 318092 13075.5
3.78 315691 13026.6
3.8 312481 12960
3.82 312599 12962.6
3.84 309434 12896.3
3.86 309134 12890.6
3.88 308328 12873.5
3.9 304708 12797.6
3.92 305543 12815.2
3.94 303025 12762.5
3.96 302884 12759.3
3.98 303999 12783
4 302170 12744.2
4.02 302168 12744.4
4.04 301970 12740.1
4.06 301811 12736.6
4.08 303289 12768.1
4.1 302629 12753.9
4.12 304985 12803.6
4.14 306605 12837.5
4.16 305396 12812
4.18 306701 12839.8
4.2 303509 12772.5
4.22 302523 12751.7
4.24 301567 12731.8
4.26 299534 12688.8
4.28 298801 12672.9
4.3 297471 12644.8
4.32 294169 12574.4
4.34 293840 12567.6
4.36 288445 12451.3
4.38 286297 12405.1
4.4 284212 12359.8
4.42 281652 12304.2
4.44 280276 12274
4.46 277735 12218.2
4.48 275656 12172.3
4.5 274702 12151.3
4.52 271266 12075.1
4.54 270325 12054.1
4.56 269388 12033.2
4.58 266962 11978.6
4.6 267418 11989.3
4.62 264560 11925
4.64 263561 11902.3
4.66 263371 11898
4.68 260992 11844.2
4.7 259582 11812.1
4.72 258037 11776.8
4.74 257288 11759.8
4.76 258094 11778.2
4.78 256079 11732.1
4.8 255072 11709.2
4.82 254798 11702.7
4.84 252956 11660.4
4.86 251968 11637.6
4.88 251125 11618.1
4.9 249433 11578.9
4.92 250242 11597.6
4.94 248107 11548.3
4.96 247621 11536.8
4.98 247219 11527.4
5 245568 11489
5.02 246744 11516.2
5.04 244429 11462.2
5.06 243293 11435.6
5.08 244368 11460.5
5.1 242977 11428.1
5.12 243557 11441.7
5.14 244764 11469.9
5.16 243849 11448.7
5.18 246122 11501.8
5.2 244340 11460.2
5.22 244274 11458.5
5.24 244370 11460.9
5.26 242877 11425.8
5.28 242389 11414.4
5.3 242079 11407
5.32 239689 11350.3
5.34 239170 11338.2
5.36 236980 11286
5.38 237114 11289.4
5.4 236533 11275.4
5.42 235186 11243.3
5.44 235958 11262
5.46 235409 11248.6
5.48 234118 11217.8
5.5 235198 11243.7
5.52 233845 11211.4
5.54 233811 11210.4
5.56 232974 11190.6
5.58 233044 11191.7
5.6 232923 11189.2
5.62 233330 11198.6
5.64 233575 11205.1
5.66 235275 11245.4
5.68 234155 11218.7
5.7 233869 11211.8
5.72 234866 11235.7
5.74 233434 11201.6
5.76 233549 11204
5.78 232730 11184.4
5.8 231465 11154.1
5.82 232149 11170.7
5.84 230097 11121.1
5.86 229994 11118.4
5.88 230578 11132.6
5.9 228840 11090.8
5.92 228429 11080.6
5.94 228135 11073.7
5.96 226807 11041.1
5.98 226819 11041.8
6 224477 10984.3
6.02 223842 10969.1
6.04 223785 10967.5
6.06 221669 10915.6
6.08 221318 10906.7
6.1 221109 10901.9
6.12 219922 10872.2
6.14 220003 10874.5
6.16 219402 10859.7
6.18 218266 10831.5
6.2 218982 10849.1
6.22 216280 10781.9
6.24 215965 10773.8
6.26 214983 10749.4
6.28 213616 10715.5
6.3 213524 10713.2
6.32 212934 10698.2
6.34 211670 10666.5
6.36 212002 10675.1
6.38 209414 10609.2
6.4 209429 10609.6
6.42 208814 10594.6
6.44 206515 10535.7
6.46 206178 10527.3
6.48 205311 10504.9
6.5 203442 10457.1
6.52 203598 10461.1
6.54 201876 10416.7
6.56 200839 10390.1
6.58 201166 10398.5
6.6 199215 10347.6
6.62 198905 10340
6.64 198748 10335.9
6.66 197344 10299.2
6.68 197364 10299.5
6.7 196253 10271
6.72 195676 10255.4
6.74 196258 10270.9
6.76 193362 10195
6.78 192992 10184.6
6.8 192162 10163.3
6.82 192026 10159.3
6.84 191630 10149
6.86 192036 10159.8
6.88 191020 10132.7
6.9 191665 10149.7
6.92 191116 10135.4
6.94 190076 10107.6
6.96 190692 10124.2
6.98 188912 10076.6
7 189052 10080.7
7.02 189499 10092.3
7.04 187664 10043.6
7.06 188792 10073.7
7.08 188306 10060.3
7.1 187672 10044.1
7.12 188678 10070.2
7.14 188070 10054
7.16 187673 10043.8
7.18 188579 10067.5
7.2 186631 10016.1
7.22 186508 10012.5
7.24 187319 10033.9
7.26 185527 9986.34
7.28 185890 9995.61
7.3 185713 9991.15
7.32 184804 9966.99
7.34 185782 9992.54
7.36 184634 9962.16
7.38 184164 9949.36
7.4 185007 9971.91
7.42 183743 9938.26
7.44 183563 9932.44
7.46 184160 9949.72
7.48 183322 9926.5
7.5 183307 9926.3
7.52 183623 9934.26
7.54 181978 9890.43
7.56 182490 9903.69
7.58 182515 9904.8
7.6 181499 9877.11
7.62 182401 9901.58
7.64 181421 9875.26
7.66 180876 9860.04
7.68 181756 9884.18
7.7 180170 9841.04
7.72 180095 9838.65
7.74 180680 9854.77
7.76 179755 9829.61
7.78 179464 9821.75
7.8 179703 9827.79
7.82 178292 9789.26
7.84 178859 9805.23
7.86 178236 9788.1
7.88 177361 9763.5
7.9 178436 9793.26
7.92 173821 9665.99
7.94 175256 9706.11
7.96 176484 9739.49
7.98 175388 9709.02
8 174981 9698.22
8.02 175919 9723.97
8.04 174227 9677.44
8.06 174458 9683.75
8.08 174434 9682.92
8.1 173237 9649.45
8.12 173733 9663.6
8.14 173396 9654.21
8.16 172427 9627.11
8.18 173014 9643.43
8.2 172860 9639.16
8.22 172070 9617.27
8.24 172655 9633.52
8.26 171746 9608.11
8.28 171807 9609.49
8.3 172449 9627.23
8.32 171011 9587.61
8.34 171103 9590.26
8.36 171661 9605.87
8.38 170076 9560.82
8.4 170158 9563.45
8.42 170336 9568.48
8.44 168025 9503.51
8.46 168731 9523.41
8.48 168197 9508.3
8.5 166779 9468.06
8.52 167213 9480.4
8.54 167064 9476
8.56 166205 9451.78
8.58 166479 9459.45
8.6 166514 9460.38
8.62 165851 9441.9
8.64 166713 9466.08
8.66 165747 9439.15
8.68 165157 9421.65
8.7 165899 9443.07
8.72 164235 9395.68
8.74 164030 9389.92
8.76 164557 9404.65
8.78 164006 9388.98
8.8 163847 9384.53
8.82 164315 9397.96
8.84 162786 9354.13
8.86 162746 9352.68
8.88 163076 9362.44
8.9 161975 9330.57
8.92 162271 9339.64
8.94 162697 9351.12
8.96 161641 9321.15
8.98 161656 9321.65
9 162109 9334.3
9.02 160606 9291.4
9.04 160974 9302
9.06 161096 9305.26
9.08 160165 9278.29
9.1 160216 9280.11
9.12 160052 9275.17
9.14 159282 9253.04
9.16 159512 9259.04
9.18 159300 9253.53
9.2 158472 9229.41
9.22 159358 9255.05
9.24 158577 9232.29
9.26 158118 9218.74
9.28 158869 9240.6
9.3 157089 9189.27
9.32 157241 9193.44
9.34 157812 9209.81
9.36 156347 9167.38
9.38 156509 9171.83
9.4 156714 9177.79
9.42 155216 9133.85
9.44 155134 9131.51
9.46 155840 9152.7
9.48 155091 9130
9.5 154917 9125.32
9.52 156096 9159.88
9.54 154618 9116.25
9.56 154601 9116
9.58 155107 9130.93
9.6 153855 9093.78
9.62 153952 9096.42
9.64 154763 9120.6
9.66 153576 9085.48
9.68 153830 9093.45
9.7 154366 9108.51
9.72 153541 9084.79
9.74 153437 9081.39
9.76 153969 9097.18
9.78 152781 9061.64
9.8 152743 9061.24
9.82 153375 9079.33
9.84 152317 9048.56
9.86 151824 9033.34
9.88 152466 9052.82
9.9 151189 9014.65
9.92 151035 9009.92
9.94 151810 9033.34
9.96 150693 8999.64
9.98 150268 8987.69
10 150422 8991.61
10.02 149737 8971.35
10.04 149706 8970.51
10.06 150101 8982.32
10.08 149481 8963.62
10.1 149027 8950.23
10.12 149737 8970.65
10.14 148488 8934.37
10.16 148601 8937.33
10.18 148953 8947.41
10.2 148188 8924.94
10.22 147634 8908.24
10.24 148029 8919.76
10.26 147083 8891.51
10.28 147205 8895.18
10.3 147268 8897.13
10.32 146680 8879.16
10.34 146099 8862.12
10.36 146939 8886.78
10.38 145930 8856.7
10.4 145630 8847.54
10.42 146274 8866.69
10.44 145145 8833.17
10.46 144904 8824.97
10.48 145251 8836.17
10.5 144236 8804.73
10.52 144216 8804.74
10.54 144303 8807.34
10.56 143917 8794.91
10.58 143573 8784.67
10.6 143664 8787.45
10.62 143549 8783.81
10.64 142736 8759.26
10.66 142409 8749.19
10.68 142766 8759.96
10.7 142092 8739.11
10.72 142127 8740.39
10.74 142159 8741.5
10.76 141648 8725.74
10.78 141539 8721.96
10.8 141735 8728.62
10.82 140823 8700.03
10.84 140930 8703.92
10.86 141371 8716.71
10.88 140891 8701.68
10.9 140590 8693.14
10.92 140912 8703.36
10.94 140260 8682.15
10.96 139686 8665.47
10.98 140370 8686.14
11 139699 8665.63
11.02 139589 8661.62
11.04 139544 8660.57
11.06 139302 8653.45
11.08 139369 8654.45
11.1 139091 8647.03
11.12 139125 8647.16
11.14 138866 8639.85
11.16 138784 8637.1
11.18 139005 8643.44
11.2 138603 8631.43
11.22 138013 8612.67
11.24 138832 8638.06
11.26 137887 8609.7
11.28 137719 8603.67
11.3 137871 8608.47
11.32 136999 8581.42
11.34 137335 8592.16
11.36 137539 8597.82
11.38 136680 8571.27
11.4 136932 8579.06
11.42 137101 8584.53
11.44 136342 8560.71
11.46 135898 8546.52
11.48 136192 8556.53
11.5 136197 8556.26
11.52 135842 8544.34
11.54 135696 8540.78
11.56 135684 8539.99
11.58 133610 8473.83
11.6 133988 8486.89
11.62 134385 8499.03
11.64 133848 8481.64
11.66 133859 8482.48
11.68 134487 8501.85
11.7 133886 8483.19
11.72 133821 8481.73
11.74 134010 8486.77
11.76 133714 8477.44
11.78 133366 8466.87
11.8 133300 8464.87
11.82 133572 8473.01
11.84 132781 8448.14
11.86 132772 8447.73
11.88 132617 8442.92
11.9 132083 8425.83
11.92 132313 8433.26
11.94 132213 8429.94
11.96 131921 8420.07
11.98 131291 8400.82
12 131497 8406.87
12.02 131697 8414.19
12.04 131191 8397.32
12.06 131228 8398.53
12.08 131271 8399.57
12.1 130648 8380.08
12.12 130826 8385.56
12.14 131018 8391.9
12.16 130351 8370.53
12.18 130378 8371.45
12.2 129928 8356.51
12.22 130234 8366.85
12.24 130084 8361.25
12.26 130141 8363.99
12.28 130619 8379.4
12.3 129817 8352.76
12.32 129696 8349.68
12.34 129978 8358.24
12.36 129556 8345.06
12.38 129389 8339.2
12.4 129442 8341.21
12.42 129719 8349.86
12.44 128731 8318.46
12.46 128499 8310.88
12.48 129280 8335.79
12.5 128515 8311.35
12.52 128216 8301.78
12.54 128422 8308.1
12.56 128131 8299.04
12.58 127415 8276.06
12.6 127562 8280.08
12.62 128046 8296.45
12.64 127364 8273.77
12.66 127685 8284.4
12.68 127858 8289.88
12.7 127591 8281.54
12.72 126586 8248.95
12.74 127070 8264.42
12.76 127484 8277.26
12.78 126691 8252.2
12.8 126949 8261.09
12.82 127097 8265.33
12.84 126727 8252.94
12.86 126467 8244.93
12.88 126334 8240.25
12.9 126919 8259.88
12.92 126110 8232.8
12.94 126197 8235.59
12.96 126527 8246.82
12.98 125975 8229.03
13 125526 8213.86
13.02 125696 8219.15
13.04 125847 8224.81
13.06 125125 8201.11
13.08 124820 8190.69
13.1 124866 8192.41
13.12 124648 8185.56
13.14 124242 8171.94
13.16 124086 8167.19
13.18 124850 8191.59
13.2 124326 8174.8
13.22 124366 8175.72
13.24 124363 8175.84
13.26 124356 8175.8
13.28 123835 8158.25
13.3 123710 8154.68
13.32 124087 8167.13
13.34 123354 8142.46
13.36 123356 8142.73
13.38 123568 8149.66
13.4 123414 8144.4
13.42 123242 8139.32
13.44 122669 8119.94
13.46 123155 8136.42
13.48 122938 8128.37
13.5 122423 8112
13.52 122411 8111.57
13.54 122508 8114.84
13.56 121916 8094.95
13.58 121940 8096.11
13.6 121832 8092
13.62 122398 8110.99
13.64 121864 8093.34
13.66 121690 8087.38
13.68 122076 8100.63
13.7 121482 8080.38
13.72 121569 8084.02
13.74 121124 8068.57
13.76 121523 8082.21
13.78 121013 8064.95
13.8 120975 8063.48
13.82 120868 8060.72
13.84 121297 8074.3
13.86 120696 8054.34
13.88 120543 8049.94
13.9 120675 8052.74
13.92 120564 8050.68
13.94 120282 8040.52
13.96 119924 8028.93
13.98 120149 8036.24
14 119788 8024.09
14.02 119335 8008.93
14.04 119359 8009.64
14.06 119710 8021.79
14.08 119654 8019.56
14.1 119079 8000.15
14.12 119157 8002.88
14.14 119441 8013.12
14.16 119223 8004.65
14.18 119030 7999.07
14.2 118717 7987.98
14.22 118949 7995.98
14.24 118454 7979.1
14.26 118385 7977
14.28 118206 7970.76
14.3 118238 7972.52
14.32 117733 7955.38
14.34 117767 7955.5
14.36 118050 7965.47
14.38 117813 7958.33
14.4 117487 7946.57
14.42 117277 7939.13
14.44 117318 7941.02
14.46 117089 7933.42
14.48 116782 7922.8
14.5 116635 7918.12
14.52 116923 7927.34
14.54 116394 7910.07
14.56 116717 7920.28
14.58 116832 7924.56
14.6 116966 7929.17
14.62 116370 7908.15
14.64 116341 7907.83
14.66 116513 7913.97
14.68 116539 7914.47
14.7 116157 7901.59
14.72 116049 7897.89
14.74 115759 7888.26
14.76 115857 7891.02
14.78 115195 7869.04
14.8 115508 7879.13
14.82 115283 7871.85
14.84 115739 7887.55
14.86 114706 7852.59
14.88 114544 7846.07
14.9 114399 7841.9
14.92 114713 7852.14
14.94 114237 7836.2
14.96 114170 7833.37
14.98 114490 7844.53
15 114402 7841.84
15.02 114409 7841.84
15.04 114061 7830.15
15.06 114117 7831.84
15.08 113916 7824.81
15.1 113803 7820.69
15.12 113237 7802.11
15.14 113099 7796.76
15.16 113478 7809.75
15.18 113179 7799.79
15.2 113243 7802.46
15.22 113123 7796.88
15.24 113070 7795.91
15.26 113561 7812.91
15.28 112742 7784.6
15.3 113017 7793.99
15.32 113015 7794.2
15.34 112834 7787.78
15.36 112922 7790.82
15.38 112439 7773.83
15.4 112361 7771.4
15.42 112509 7776.26
15.44 112398 7772.67
15.46 111966 7757.78
15.48 112068 7761.01
15.5 112039 7760.64
15.52 112105 7761.91
15.54 111685 7748.28
15.56 111518 7742.02
15.58 111565 7744.26
15.6 111940 7756.46
15.62 111499 7741.75
15.64 111188 7730.87
15.66 111171 7729.68
15.68 110954 7722.77
15.7 111153 7729.73
15.72 110745 7714.91
15.74 110839 7718.76
15.76 110748 7714.79
15.78 111232 7732.96
15.8 110597 7710.17
15.82 110856 7719.03
15.84 110414 7704.23
15.86 110491 7706.01
15.88 110393 7703.53
15.9 110127 7694.43
15.92 109667 7676.79
15.94 110072 7691.53
15.96 110362 7702.49
15.98 109936 7686.64
16 109953 7687.71
16.02 109746 7680.8
16.04 109379 7667.66
16.06 109861 7684.09
16.08 109508 7672.43
16.1 109377 7667.24
16.12 109206 7662.1
16.14 109446 7668.45
16.16 109142 7660.43
16.18 108976 7653.1
16.2 109170 7660.28
16.22 108966 7652.99
16.24 109288 7664.75
16.26 108693 7643.09
16.28 108493 7636.27
16.3 108322 7630.48
16.32 108276 7628.8
16.34 108418 7633.89
16.36 108380 7632.69
16.38 108257 7627.99
16.4 108234 7627.16
16.42 108058 7621.78
16.44 108487 7635.94
16.46 108025 7620.4
16.48 107660 7607.01
16.5 107607 7604.83
16.52 107568 7604.01
16.54 107939 7616.45
16.56 107512 7602.05
16.58 107558 7603.38
16.6 107544 7603.21
16.62 107454 7599.59
16.64 107645 7606.91
16.66 107330 7594.65
16.68 106734 7575.12
16.7 107029 7584.21
16.72 106807 7577.45
16.74 107130 7588.6
16.76 106703 7572.76
16.78 106435 7564.02
16.8 106352 7560.51
16.82 106783 7576.19
16.84 106550 7567.41
16.86 106459 7564.67
16.88 106079 7551.44
16.9 106440 7563.43
16.92 106422 7562.95
16.94 106353 7561.02
16.96 105985 7547.54
16.98 105856 7543.43
17 105628 7535.02
17.02 105835 7542.05
17.04 105533 7531.37
17.06 105164 7518
17.08 105065 7514.94
17.1 105260 7522.19
17.12 105241 7520.94
17.14 105194 7519.29
17.16 105333 7524.55
17.18 104714 7502.58
17.2 104720 7502.83
17.22 104831 7506.03
17.24 104886 7508.64
17.26 104919 7509.7
17.28 104487 7493.55
17.3 104051 7478.86
17.32 103969 7475.12
17.34 104062 7480.08
17.36 104133 7480.87
17.38 104280 7486.66
17.4 103935 7474.26
17.42 103869 7472.14
17.44 103709 7466.16
17.46 103624 7463.68
17.48 103913 7473.19
17.5 103883 7472.22
17.52 103294 7451.53
17.54 103092 7443.53
17.56 103204 7448.86
17.58 103077 7443.57
17.6 103506 7458.85
17.62 103276 7450.09
17.64 103087 7443.83
17.66 102833 7434.4
17.68 102765 7432
17.7 102510 7423.45
17.72 103045 7442.04
17.74 102843 7434.52
17.76 102959 7439.79
17.78 102548 7423.57
17.8 102701 7429.89
17.82 102460 7421.3
17.84 102744 7431.16
17.86 102363 7417.42
17.88 102489 7422.76
17.9 102243 7413.18
17.92 102037 7405.47
17.94 102068 7406.81
17.96 101965 7403.56
17.98 102004 7404.45
18 101803 7397.9
18.02 101587 7388.95
18.04 101509 7387.03
18.06 101806 7397.37
18.08 101561 7387.8
18.1 101743 7395.72
18.12 101451 7383.91
18.14 101346 7381.61
18.16 100957 7366.6
18.18 101049 7369.46
18.2 100969 7366.96
18.22 101095 7371.45
18.24 100856 7363.21
18.26 100594 7353.28
18.28 100658 7355.32
18.3 100189 7337.85
18.32 100275 7342.03
18.34 99972.8 7330.72
18.36 100316 7342.81
18.38 100040 7333.48
18.4 100151 7337.06
18.42 100245 7340.33
18.44 99976 7330.84
18.46 100230 7339.37
18.48 100171 7337.79
18.5 100197 7339.43
18.52 99845 7324.77
18.54 99734.5 7322.08
18.56 99574.4 7316
18.58 99351.4 7307.62
18.6 99424.2 7309.79
18.62 99458.5 7311.65
18.64 99413.1 7310.22
18.66 99112.7 7298.35
18.68 98940.6 7292.39
18.7 98837.6 7289.05
18.72 98901.7 7290.89
18.74 98992.2 7294.67
18.76 98878.2 7290.46
18.78 98669.9 7283.35
18.8 98922.1 7290.99
18.82 98231.2 7266.54
18.84 98317.7 7269.36
18.86 98212.6 7265.53
18.88 98217.1 7265.88
18.9 98127.4 7261.91
18.92 98272.3 7267.94
18.94 98153.3 7263.82
18.96 98118.9 7262.05
18.98 97567.2 7241.77
19 97552.7 7241.33
19.02 97184.5 7228.05
19.04 97045.1 7222.15
19.06 97071.9 7222.99
19.08 96939.4 7218.11
19.1 97187.9 7227.27
19.12 97355.4 7234.5
19.14 96959.3 7219.47
19.16 96798.1 7213.16
19.18 96703.8 7209.67
19.2 96726.1 7210.1
19.22 96124.1 7188.31
19.24 96046.6 7184.44
19.26 95813.7 7176.43
19.28 96041.3 7184.52
19.3 96201.4 7191.54
19.32 95798.8 7175.63
19.34 95777.7 7174.98
19.36 95487.7 7164.12
19.38 95291.8 7157.03
19.4 95343.6 7159.68
19.42 95716.4 7171.41
19.44 95655.7 7170.58
19.46 95471 7164.15
19.48 95322.8 7157.57
19.5 95079 7148.78
19.52 94895.6 7142.42
19.54 94986.4 7144.34
19.56 95235.7 7155.44
19.58 95039.1 7147.14
19.6 94796.1 7137.85
19.62 94513.4 7128.14
19.64 94492 7126.44
19.66 94419.7 7124.23
19.68 94677.9 7133.63
19.7 94323.3 7119.77
19.72 93932.2 7105.74
19.74 93902 7104.59
19.76 93976.6 7107.38
19.78 94137.5 7113.62
19.8 93901.2 7104.43
19.82 93841.3 7101.76
19.84 93905.6 7104.42
19.86 93662.2 7095.07
19.88 93553.9 7091.23
19.9 93280 7081.53
19.92 93180 7076.35
19.94 93168.4 7077.27
19.96 93330.7 7082.39
19.98 93075.7 7073.16
20 93163.4 7076.3
20.02 92808 7063.38
20.04 92684.4 7058.1
20.06 92774.2 7061.7
20.08 92453.7 7049.35
20.1 92894.5 7066.25
20.12 92756.2 7061.13
20.14 92828.1 7064.22
20.16 92357.2 7044.73
20.18 92344 7045.49
20.2 92062.9 7034.58
20.22 91853 7026.14
20.24 91890.3 7028.23
20.26 91659.4 7019.49
20.28 91563.6 7014.73
20.3 91376.1 7008.66
20.32 91638.3 7018.64
20.34 91876.3 7027.41
20.36 91705.2 7020.78
20.38 91754.3 7022.42
20.4 91731.8 7021.99
20.42 91261.9 7003.82
20.44 91211 7001.96
20.46 91290 7005.45
20.48 91185 7000.63
20.5 90946 6991.27
20.52 90663 6980.75
20.54 90832.3 6987.66
20.56 90644 6980.41
20.58 90350.3 6968.9
20.6 90605.4 6978.18
20.62 90362.6 6969.2
20.64 90424.8 6971.74
20.66 89929.7 6952.37
20.68 90034.8 6956.1
20.7 90013.4 6956.37
20.72 89963.1 6953.88
20.74 90100.9 6959.09
20.76 89923.8 6951.77
20.78 89868.3 6950.07
20.8 90031.4 6956.78
20.82 89800.5 6947.45
20.84 89562 6938.75
20.86 89298.3 6927.67
20.88 88956.8 6915.37
20.9 88755.8 6906.77
20.92 89247.9 6926.41
20.94 89221.4 6924.67
20.96 89056.4 6918.57
20.98 88752.7 6906.82
21 88860.8 6911.4
21.02 89100.1 6920.53
21.04 88890.8 6911.96
21.06 88955 6914.88
21.08 88580.3 6900.27
21.1 88164.1 6883.57
21.12 88390.3 6893.23
21.14 88315.6 6889.62
21.16 88292.9 6889.66
21.18 88163.4 6883.23
21.2 87871.7 6872.95
21.22 87913.5 6874.28
21.24 87906.7 6874.02
21.26 88129.3 6882.43
21.28 88183.1 6884.64
21.3 87659.1 6863.72
21.32 87654.4 6864.46
21.34 87703 6865.64
21.36 87493.3 6857.69
21.38 87283.5 6849.4
21.4 87075.4 6841.17
21.42 86662.4 6825.85
21.44 86675.1 6825.11
21.46 86729.4 6827.92
21.48 86640.4 6823.84
21.5 86492.1 6818.74
21.52 86231.9 6807.93
21.54 86402.1 6814.54
21.56 86046.4 6801.72
21.58 86208.8 6806.59
21.6 86116.1 6803.66
21.62 86164.3 6804.89
21.64 86339.8 6812.57
21.66 85955.6 6797.38
21.68 85840.4 6792.57
21.7 85732.9 6788.38
21.72 85484.8 6778.33
21.74 85361.8 6773.47
21.76 85432.3 6777.43
21.78 85434.8 6776.75
21.8 85031.7 6759.95
21.82 84906.3 6755.18
21.84 84672.5 6746.21
21.86 84735.1 6748.75
21.88 84888 6754.98
21.9 84425.1 6736.3
21.92 84391.3 6735.44
21.94 84434.2 6736.68
21.96 84236.5 6728.34
21.98 84137.3 6724.99
22 83917.7 6716.01
22.02 84015.3 6719.85
22.04 84172.5 6726.99
22.06 83992.3 6718.93
22.08 83977.9 6717.89
22.1 83330.2 6693.9
22.12 83645.1 6704.21
22.14 83489.9 6698.89
22.16 83572.6 6702.82
22.18 83313.1 6691.55
22.2 83162.2 6685.62
22.22 83710.4 6707.99
22.24 83306.6 6691.87
22.26 83208.9 6688.14
22.28 82951.6 6676.88
22.3 82677.6 6666.15
22.32 82510.7 6659.32
22.34 82552.1 6662.04
22.36 82894.4 6674.76
22.38 82917.2 6675.93
22.4 82299.9 6650.68
22.42 82283.3 6650.46
22.44 82317.9 6651.79
22.46 81947.4 6636.95
22.48 82001.7 6638.7
22.5 81663.2 6625.55
22.52 81832 6632.18
22.54 81416.3 6614.82
22.56 81748.9 6628.83
22.58 81329.1 6611.64
22.6 81003.8 6598.29
22.62 80858.7 6592.43
22.64 80973.8 6597.36
22.66 81214.1 6607.07
22.68 80900.8 6593.78
22.7 80652.2 6584.32
22.72 80784.4 6589.97
22.74 80829.5 6590.86
22.76 80939.8 6596.02
22.78 80690 6586.14
22.8 80405.5 6574
22.82 79922.7 6553.92
22.84 79955.7 6556.15
22.86 79861.9 6551.53
22.88 79757.5 6548.33
22.9 80217.7 6566.31
22.92 80130.3 6562.71
22.94 80216.9 6565.79
22.96 79991.5 6557.88
22.98 80033.8 6558.26
23 79891 6553.03
23.02 79744 6546.5
23.04 79603.7 6541.8
23.06 79022.3 6517.39
23.08 78742.4 6505.81
23.1 78772.3 6506.79
23.12 78880.4 6511.17
23.14 78422.3 6493.56
23.16 78385 6490.59
23.18 78187.2 6481.48
23.2 78119.2 6481.01
23.22 78757.7 6506.19
23.24 78839.1 6509.59
23.26 78549.3 6497.93
23.28 78266.8 6486.43
23.3 78231 6485.01
23.32 78453.4 6493.23
23.34 78333.9 6489.12
23.36 78275.2 6485.91
23.38 77858.4 6469.61
23.4 77495.3 6453.57
23.42 77621 6459.52
23.44 77520.1 6454.62
23.46 77507.8 6455
23.48 77350.2 6448.26
23.5 77258.8 6443.43
23.52 76618.7 6417.67
23.54 77055 6435.61
23.56 77107.5 6438.4
23.58 77224.8 6442.58
23.6 76940.7 6430.26
23.62 76961.3 6432.11
23.64 76709.1 6420.48
23.66 76413.2 6409.24
23.68 76337.4 6405.74
23.7 76814.6 6424.88
23.72 76617.3 6418
23.74 76500.4 6411.9
23.76 76665.7 6419.21
23.78 76193.8 6400.17
23.8 76155.4 6398.21
23.82 75986.4 6390.44
23.84 75888.4 6387.43
23.86 76079.8 6394.61
23.88 75784.3 6382.3
23.9 75797 6382.69
23.92 76028.5 6392.12
23.94 75845.6 6385.44
23.96 75962.6 6389.03
23.98 75718.5 6379.85
24 75871 6386.77
24.02 76225.1 6400.46
24.04 76326.2 6404.76
24.06 76216.4 6400.82
24.08 75839.7 6384.94
24.1 75539.7 6371.76
24.12 75530.3 6372.01
24.14 75342.6 6363.37
24.16 75424.1 6367.49
24.18 75296.3 6361.7
24.2 75559.7 6373.4
24.22 75184.1 6356.63
24.24 75295.4 6361.67
24.26 75084.3 6352.93
24.28 75227.6 6358.83
24.3 75071.9 6352.39
24.32 75167.6 6355.6
24.34 74921 6346.5
24.36 75253.3 6359.68
24.38 75076.3 6353.39
24.4 74741.2 6336.93
24.42 74689.9 6336.59
24.44 74774.9 6340.08
24.46 74489 6328.06
24.48 74560.3 6329.94
24.5 74620.7 6334.01
24.52 74548 6328.92
24.54 74702.1 6338.13
24.56 74831.7 6341.12
24.58 74552 6330.42
24.6 74152.7 6312.5
24.62 74278.5 6319.05
24.64 73965.1 6305.18
24.66 74109.2 6311.36
24.68 73867.6 6301.47
24.7 73763.8 6296.63
24.72 73159.9 6271.46
24.74 73344.3 6278.08
24.76 73508 6285.65
24.78 73767.2 6297.7
24.8 73544.7 6287.22
24.82 73256.3 6274.48
24.84 73125 6269.78
24.86 72609.9 6247.51
24.88 73231.8 6273.8
24.9 73635.5 6291.7
24.92 72890.3 6259.63
24.94 73041.7 6264.85
24.96 73543.5 6287.3
24.98 73268.7 6275.99
25 73000 6264.2
25.02 72694.1 6250.79
25.04 72405.9 6238.91
25.06 72615.6 6246.95
25.08 72606 6246.97
25.1 72051.7 6222.72
25.12 72317.3 6235.28
25.14 72591 6246.32
25.16 72027.8 6221.61
25.18 71934.5 6219.26
25.2 72174 6228.12
25.22 72535.4 6244.47
25.24 71919.5 6217.47
25.26 71388.4 6194.02
25.28 71681.6 6208.17
25.3 71553.7 6200.68
25.32 71401.1 6195.1
25.34 71597.4 6203.34
25.36 71126.5 6183.79
25.38 71663.6 6205.49
25.4 71629.6 6206.36
25.42 71575.6 6201.61
25.44 71219.2 6187.12
25.46 71200.4 6185.59
25.48 71162 6186.06
25.5 71313.9 6190.95
25.52 70549.2 6157.01
25.54 70311 6148.39
25.56 70565.8 6159.13
25.58 70370.5 6150.41
25.6 70281.2 6145.17
25.62 70996 6177.27
25.64 70616.5 6161.69
25.66 70524 6156.48
25.68 70761.3 6166.99
25.7 70926 6174.59
25.72 71000.8 6177.89
25.74 70689 6163.33
25.76 70676.4 6164.11
25.78 70199.1 6142.42
25.8 69491.1 6111.7
25.82 69603.7 6116.57
25.84 69142.8 6096.1
25.86 69126.9 6095.22
25.88 69014 6090.39
25.9 68901.5 6085.32
25.92 68776.5 6080.61
25.94 69240.9 6101
25.96 68700.7 6076.31
25.98 68599.7 6072.39
26 68711.5 6077.28
26.02 68655.8 6074.6
26.04 68146.9 6052.51
26.06 68318.2 6059.09
26.08 68255.3 6057.84
26.1 68587.6 6071.29
26.12 68213 6055.79
26.14 68173.7 6053.08
26.16 68402 6063.46
26.18 68093.3 6050.36
26.2 67680.1 6031.52
26.22 67173.6 6007.86
26.24 67475.3 6022.21
26.26 67610.2 6030.03
26.28 67811.8 6036.03
26.3 67827 6036.94
26.32 67882.1 6040.76
26.34 67371.9 6018.32
26.36 67354.9 6016.5
26.38 66764.9 5990.95
26.4 66574.5 5981.89
26.42 66459.4 5977.5
26.44 66745.6 5989.11
26.46 66977.7 6000.91
26.48 66940.6 5997.21
26.5 66542.8 5980.49
26.52 66434.6 5976.5
26.54 66026.8 5956.24
26.56 65643.7 5941.37
26.58 66183.6 5963.15
26.6 66139.8 5962.77
26.62 66724.6 5988.64
26.64 66172.3 5963.68
26.66 65419.4 5930.93
26.68 65233.8 5920.65
26.7 65448.8 5930.83
26.72 65816.3 5947.72
26.74 65630.3 5939.41
26.76 64702.1 5897.48
26.78 64757.2 5900.75
26.8 64763.3 5898.06
26.82 64262.6 5878.24
26.84 64050.1 5866.91
26.86 65165 5917.82
26.88 65104.2 5915.94
26.9 64266.4 5878.18
26.92 64221.9 5876.51
26.94 63746 5852.15
26.96 63147.4 5825.46
26.98 63533.7 5844.71
27 63497.2 5842.79
27.02 64109.2 5868.62
27.04 64367.2 5882.62
27.06 64110.7 5870.75
27.08 64450.4 5885.4
27.1 64711.1 5897.39
27.12 63905.5 5860.31
27.14 63098.9 5824.53
27.16 62096.3 5775.91
27.18 62583.3 5801
27.2 63224.7 5829.67
27.22 63633.6 5848.4
27.24 62684.7 5803.32
27.26 62457.5 5795.15
27.28 62519 5797.08
27.3 62751.1 5807.94
27.32 62065.2 5775.19
27.34 61954.5 5770.24
27.36 61365.4 5743.56
27.38 61622.7 5754.31
27.4 61320.3 5741.22
27.42 61445.6 5746.75
27.44 61222 5736.55
27.46 62006.8 5773.89
27.48 61686.3 5757.35
27.5 61320.5 5740.65
27.52 60017.2 5680.08
27.54 60015.4 5680.13
27.56 60431.2 5699.37
27.58 61093.8 5730.4
27.6 61204.3 5735.18
27.62 61450.8 5747.92
27.64 59777.4 5665.18
27.66 59242.1 5644.61
27.68 59844.8 5672.3
27.7 59496.4 5653.95
27.72 59751.5 5667.74
27.74 59337.5 5646.43
27.76 58274.2 5598.24
27.78 58416.8 5603.87
27.8 59217.3 5641.14
27.82 59723.7 5665.54
27.84 59443.5 5651.87
27.86 59189.2 5642.06
27.88 59120.7 5637.8
27.9 58592.4 5610.28
27.92 58911 5627.52
27.94 59269.3 5644.32
27.96 59246.1 5642.94
27.98 59010.2 5632.57
28 58279.3 5595.94
28.02 57902.7 5578.75
28.04 58593.8 5611.4
28.06 58276.8 5597.14
28.08 57067.7 5539.7
28.1 56474.6 5508.37
28.12 56466 5510.1
28.14 57975.5 5581.49
28.16 58088.7 5588.33
28.18 57645 5566.47
28.2 57492.3 5559.4
28.22 56637.9 5516.82
28.24 56372.2 5505.41
28.26 55654.2 5469.17
28.28 55919.4 5481.65
28.3 55959.1 5485.55
28.32 56547.2 5512.14
28.34 56762.6 5523.49
28.36 55713.3 5472.93
28.38 55343.9 5453.09
28.4 55923.8 5482.43
28.42 55429.1 5459.93
28.44 55340.2 5453.08
28.46 55428.6 5458.72
28.48 56093.4 5490.87
28.5 55886.4 5479.34
28.52 54716 5424.32
28.54 54082 5391.28
28.56 53719 5372.83
28.58 53717.2 5374.97
28.6 54915.1 5432.03
28.62 55288.1 5451.77
28.64 54332 5405.27
28.66 53974.6 5386.67
28.68 53165.3 5344.62
28.7 53429.9 5358.4
28.72 54020.3 5388.76
28.74 54342.9 5404.63
28.76 54617 5418.76
28.78 53572.5 5364.83
28.8 53911.2 5385.22
28.82 53976.8 5385.09
28.84 52797.3 5326.74
28.86 52839.7 5328.73
28.88 52929.4 5335.1
28.9 53442.8 5358.56
28.92 54288.7 5403.19
28.94 52646.9 5319.24
28.96 50581.1 5213.9
28.98 52225.5 5299.42
29 52701.7 5320.93
29.02 52256.9 5300.99
29.04 52210.8 5295.7
29.06 51103.2 5241.93
29.08 51914.9 5282.88
29.1 51425.8 5257.04
29.12 51161.2 5243.95
29.14 51372.4 5255.01
29.16 50822 5227.64
29.18 51644.2 5267.61
29.2 51185.8 5245.13
29.22 51721 5271.6
29.24 52013.3 5287.26
29.26 50530.5 5213.24
29.28 49841.4 5176.13
29.3 50558.7 5213.95
29.32 51123.1 5241.92
29.34 50372.6 5202.81
29.36 50685.5 5218.86
29.38 49918.5 5180.93
29.4 49834.4 5174.97
29.42 50959.4 5233.09
29.44 49961.2 5182.4
29.46 49905.5 5179.03
29.48 49492.9 5158.72
29.5 48016.8 5080.34
29.52 48700.5 5114.4
29.54 49230.1 5145.61
29.56 50737 5222.93
29.58 50115.8 5190.59
29.6 49590.5 5162.13
29.62 49258.9 5147.82
29.64 50786.3 5221.89
29.66 49950.8 5182.92
29.68 49906.9 5179.44
29.7 48497.3 5104.58
29.72 49221.2 5144.7
29.74 49520 5157.65
29.76 51022.6 5238.98
29.78 49794.7 5172.72
29.8 50960 5233.49
29.82 51947.5 5284.99
29.84 49827.9 5172.98
29.86 48064.7 5084.02
29.88 48859.4 5125.85
29.9 46930.6 5021.01
29.92 46444.6 4996.2
29.94 49050.5 5136.34
29.96 49274.1 5143.73
29.98 49423 5157.13
30 49299.2 5148.97
30.02 50705.7 5217.59
30.04 50124.8 5193.59
30.06 49417.3 5152.37
30.08 47926.6 5074.13
30.1 49300.4 5149.39
30.12 48124.3 5083.03
30.14 45818.3 4964.83
30.16 49260.7 5144.92
30.18 50846.9 5229.24
30.2 50324.1 5201.49
30.22 48916.8 5127.34
30.24 47742.5 5065.81
30.26 48264.2 5092.86
30.28 49524.1 5160.06
30.3 49279 5143.85
30.32 48881.5 5127.91
30.34 48221.8 5089.53
30.36 47276.6 5039.5
30.38 48219.8 5090.99
30.4 48377.8 5102.1
30.42 48674.8 5117.81
30.44 46563.2 4999.68
30.46 44055.9 4866.05
30.48 46219.7 4982.77
30.5 48668.5 5116.98
30.52 46526.1 4999.54
30.54 46960.8 5021.68
30.56 45743.5 4958.9
30.58 45653.3 4957.42
30.6 43357.9 4823.47
30.62 46417.7 4995.64
30.64 47273.4 5044.39
30.66 43476.8 4834.45
30.68 43428.7 4831.38
30.7 45147 4920.07
30.72 47234.7 5040.22
30.74 46580.3 5009.18
30.76 46685.6 5007.56
30.78 45622.1 4948.11
30.8 43520 4837.95
30.82 43917.3 4857.93
30.84 43974 4864.38
30.86 46413.9 4986.69
30.88 46772.2 5016.55
30.9 41927.9 4751.75
30.92 42804 4786.04
30.94 40504.9 4667.66
30.96 39990.3 4637.05
30.98 40280.7 4657
31 41597.7 4733.19
31.02 39359.3 4605.71
31.04 42033.4 4750
31.06 36976.7 4455.96
31.08 42351.1 4774.06
31.1 35659.3 4368.06
31.12 30370.3 4045.74
31.14 36342.7 4452.82
31.16 30801.9 4013.24
31.18 29789.1 4033.46
31.2 31043.4 4096
31.22 23405.7 3461.75
31.24 21845.3 4096
31.26 0 0
31.28 0 0
31.3 0 0
31.32 0 0
31.34 0 0
31.36 0 0
31.38 0 0
31.4 0 0
31.42 0 0
31.44 0 0
31.46 0 0
31.48 0 0
31.5 0 0
31.52 0 0
31.54 0 0
