# SrXgui configration #
[Experiment]
maskfile = 
integrationspace = qspace
wavelength = 0.18333
xbeamcenter = 1020.27
ybeamcenter = 1026.162
distance = 205.364
rotationd = 143.555
tiltd = 2.131
tthstepd = 0.02
qstep = 0.02

[Beamline]
fliphorizontal = False
flipvertical = False
xdimension = 2048
ydimension = 2048
xpixelsize = 0.2
ypixelsize = 0.2

[Others]
uncertaintyenable = True
sacorrectionenable = True
polcorrectionenable = True
polcorrectf = 0.99
brightpixelmask = True
darkpixelmask = True
avgmask = False
cropedges = 10, 10, 10, 10

#### start data
0 0 0
0.02 0 0
0.04 0 0
0.06 0 0
0.08 0 0
0.1 0 0
0.12 0 0
0.14 0 0
0.16 0 0
0.18 0 0
0.2 0 0
0.22 0 0
0.24 0 0
0.26 0 0
0.28 0 0
0.3 0 0
0.32 0 0
0.34 88.7779 54.8266
0.36 141.075 69.1138
0.38 649.506 148.296
0.4 1602.61 232.945
0.42 2725.95 303.807
0.44 4310.84 382.05
0.46 5823.95 444.066
0.48 7211.7 494.149
0.5 8115.45 524.198
0.52 9289.41 560.833
0.54 10539.3 597.373
0.56 11591.6 626.484
0.58 12465.8 649.679
0.6 12854.1 659.719
0.62 14077.4 690.399
0.64 14663.1 704.616
0.66 14903.4 710.367
0.68 15739.7 730.023
0.7 15682.8 728.703
0.72 16107.4 738.503
0.74 16470.5 746.78
0.76 16536.8 748.283
0.78 17095.2 760.811
0.8 17011.8 758.952
0.82 17224.2 763.674
0.84 17388.3 767.305
0.86 17330.8 766.035
0.88 17713.1 774.437
0.9 17301.4 765.387
0.92 17692.5 773.987
0.94 17777 775.831
0.96 17600.1 771.962
0.98 17900.1 778.515
1 17495.9 769.676
1.02 17682.5 773.768
1.04 17820.6 776.783
1.06 17581.9 771.562
1.08 17858.3 777.605
1.1 17462.9 768.949
1.12 17635.4 772.737
1.14 17762.5 775.515
1.16 17539.3 770.63
1.18 17860.7 777.656
1.2 17541.4 770.677
1.22 17661.5 773.309
1.24 17698.1 774.109
1.26 17611 772.203
1.28 17876.7 778.008
1.3 17518.9 770.18
1.32 17653.4 773.131
1.34 17740.8 775.041
1.36 17544.9 770.752
1.38 17570.6 771.317
1.4 17264.1 764.559
1.42 17250 764.249
1.44 17183.7 762.779
1.46 16912.9 756.744
1.48 17009.4 758.899
1.5 16570.5 749.045
1.52 16525.8 748.031
1.54 16522.9 747.96
1.56 16201.1 740.647
1.58 16316.1 743.275
1.6 15942.5 734.71
1.62 15885 733.385
1.64 15917.4 734.133
1.66 15706.7 729.266
1.68 15796 731.329
1.7 15485.7 724.109
1.72 15507.2 724.613
1.74 15575.5 726.206
1.76 15457.6 723.449
1.78 15611.6 727.047
1.8 15448.2 723.231
1.82 15417.5 722.511
1.84 15551.2 725.647
1.86 15363.1 721.237
1.88 15565.6 725.978
1.9 15427.3 722.744
1.92 15386.2 721.78
1.94 15553.1 725.684
1.96 15453.7 723.363
1.98 15598.3 726.734
2 15457.3 723.442
2.02 15387.1 721.805
2.04 15452.2 723.325
2.06 15276.7 719.208
2.08 15444.5 723.149
2.1 15252.9 718.644
2.12 15247.3 718.519
2.14 15424.1 722.666
2.16 15352.8 720.996
2.18 15434.7 722.915
2.2 15328.2 720.424
2.22 15345.7 720.823
2.24 15507.4 724.618
2.26 15485.6 724.107
2.28 15690.7 728.891
2.3 15698.3 729.061
2.32 15785.8 731.096
2.34 16052.2 737.235
2.36 16114.5 738.668
2.38 16371.9 744.542
2.4 16355.9 744.176
2.42 16466.1 746.673
2.44 16677.5 751.46
2.46 16690.7 751.758
2.48 17017.3 759.072
2.5 17042.4 759.63
2.52 17303.3 765.426
2.54 17585.4 771.639
2.56 17656.4 773.193
2.58 18080 782.417
2.6 18233.2 785.719
2.62 18568.5 792.918
2.64 18985 801.762
2.66 19314.9 808.697
2.68 19790.3 818.59
2.7 20036 823.654
2.72 20561.3 834.386
2.74 21139.1 846.022
2.76 21441.5 852.052
2.78 22091.6 864.875
2.8 22526.3 873.342
2.82 23122.1 884.812
2.84 23967.5 900.845
2.86 24724.8 914.967
2.88 25926.8 936.947
2.9 27227 960.151
2.92 29352.4 996.925
2.94 32528.9 1049.48
2.96 37531 1127.28
2.98 49102.6 1289.41
3 72490.5 1566.68
3.02 140407 2180.39
3.04 296761 3169.87
3.06 538435 4269.78
3.08 921632 5586.22
3.1 1.38861e+06 6856.92
3.12 1.73946e+06 7674.44
3.14 1.85946e+06 7934.75
3.16 1.47135e+06 7058.26
3.18 986164 5778.48
3.2 565026 4373.94
3.22 304353 3210.16
3.24 137379 2156.74
3.26 72249 1564.05
3.28 50414.6 1306.53
3.3 40087 1165.02
3.32 35485.9 1096.13
3.34 33145.1 1059.38
3.36 31516.9 1033.04
3.38 30953.1 1023.76
3.4 30892.8 1022.74
3.42 31454.4 1031.99
3.44 33563.2 1066.05
3.46 37318.8 1124.07
3.48 48069.5 1275.75
3.5 73836 1581.15
3.52 131112 2106.98
3.54 249325 2905.49
3.56 406448 3709.73
3.58 631927 4625.65
3.6 824272 5282.92
3.62 903918 5532.27
3.64 763059 5082.97
3.66 530101 4236.62
3.68 324865 3316.58
3.7 167452 2381.11
3.72 86291.6 1709.29
3.74 49606.3 1296.01
3.76 33280 1061.51
3.78 27345 962.243
3.8 24160.7 904.433
3.82 22197.1 866.982
3.84 21140.1 845.995
3.86 20177.8 826.571
3.88 19534.3 813.237
3.9 19123.7 804.808
3.92 18677.9 795.236
3.94 18416.7 789.592
3.96 18043.4 781.613
3.98 17714.8 774.5
4 17532.6 770.448
4.02 17267.2 764.604
4.04 17098.3 760.887
4.06 16983 758.271
4.08 16748 753.086
4.1 16666.8 751.191
4.12 16438 746.038
4.14 16325.2 743.561
4.16 16231.1 741.257
4.18 16031.9 736.774
4.2 16001.6 736.031
4.22 15881.4 733.292
4.24 15854.1 732.732
4.26 15859.6 732.812
4.28 15754 730.398
4.3 15770 730.735
4.32 15700.3 729.074
4.34 15678 728.58
4.36 15657.3 728.142
4.38 15610.6 727.091
4.4 15630.1 727.493
4.42 15620.4 727.262
4.44 15648.7 727.904
4.46 15711.9 729.363
4.48 15693.5 729.001
4.5 15812.8 731.744
4.52 15722.3 729.649
4.54 15799 731.465
4.56 15847.7 732.502
4.58 15843.8 732.431
4.6 15976.4 735.474
4.62 16044.6 737.032
4.64 16133.1 739.114
4.66 16358.6 744.222
4.68 16435.3 745.982
4.7 16658.7 751.094
4.72 16879.8 756.028
4.74 17045.7 759.665
4.76 17317.4 765.719
4.78 17508.4 770.031
4.8 17770.1 775.674
4.82 18103.2 782.906
4.84 18402.8 789.296
4.86 18932.9 800.672
4.88 19373.5 809.955
4.9 20176 826.546
4.92 21341.7 850.12
4.94 23135 885.064
4.96 26767.3 951.992
4.98 33950.6 1072.15
5 53090.8 1340.75
5.02 93849.6 1782.61
5.04 168883 2391.28
5.06 283948 3100.69
5.08 419646 3769.47
5.1 538742 4271.01
5.12 552919 4326.83
5.14 448598 3897.34
5.16 300593 3190.25
5.18 183506 2492.69
5.2 110668 1935.74
5.22 63548.4 1466.86
5.24 39787.1 1160.68
5.26 29856.4 1005.45
5.28 25331.2 926.103
5.3 23351.4 889.16
5.32 22310 869.233
5.34 21462.8 852.4
5.36 21071.3 844.727
5.38 20794.2 839.119
5.4 20552.1 834.167
5.42 20449.7 832.142
5.44 20407.3 831.253
5.46 20265.8 828.328
5.48 20334.6 829.812
5.5 20185.4 826.704
5.52 20239.6 827.847
5.54 20312.2 829.291
5.56 20306 829.235
5.58 20513.2 833.372
5.6 20470.5 832.538
5.62 20676.9 836.715
5.64 20920.4 841.653
5.66 21035 843.944
5.68 21365.3 850.618
5.7 21615.7 855.435
5.72 21920.6 861.56
5.74 22494.7 872.809
5.76 22933.7 881.214
5.78 23816.3 898.009
5.8 25079 921.458
5.82 26983.8 955.909
5.84 31523.2 1033.11
5.86 40435.4 1170.1
5.88 62109.5 1450.16
5.9 107301 1906.09
5.92 176778 2446.54
5.94 308195 3230.37
5.96 443959 3877.14
5.98 555200 4335.76
6 566514 4379.69
6.02 467934 3980.46
6.04 330259 3343.98
6.06 211903 2678.63
6.08 138768 2167.6
6.1 85136.5 1697.86
6.12 55454.8 1370.3
6.14 44860.2 1232.42
6.16 47381.1 1266.67
6.18 62197.1 1451.12
6.2 91005.4 1755.41
6.22 127677 2079.2
6.24 162013 2342.15
6.26 172225 2414.84
6.28 153341 2278.6
6.3 117170 1991.82
6.32 80737.8 1653.38
6.34 56892 1387.93
6.36 42433.5 1198.67
6.38 30391.4 1014.37
6.4 24674.2 914.033
6.42 21405.5 851.38
6.44 19977.7 822.431
6.46 19253.1 807.413
6.48 18722.9 796.207
6.5 18321.5 787.621
6.52 18087.9 782.54
6.54 17748.5 775.245
6.56 17565.2 771.269
6.58 17392 767.389
6.6 17198.1 763.108
6.62 17129.7 761.537
6.64 16879.9 756.07
6.66 16791.3 753.967
6.68 16753.6 753.135
6.7 16547.4 748.498
6.72 16471.8 746.927
6.74 16343.8 743.829
6.76 16188.8 740.353
6.78 16200.9 740.645
6.8 16005.5 736.085
6.82 15979.5 735.57
6.84 16010.2 736.334
6.86 15880.5 733.278
6.88 15900 733.684
6.9 15847.3 732.524
6.92 15796.7 731.356
6.94 15930 734.425
6.96 15812.5 731.762
6.98 15884.6 733.382
7 16008.2 736.209
7.02 16057.5 737.377
7.04 16337.3 743.816
7.06 16763.4 753.359
7.08 17696.9 774.068
7.1 19971 822.362
7.12 23439 890.877
7.14 30334.3 1013.47
7.16 40817.9 1175.62
7.18 51837.2 1324.83
7.2 65047.4 1484.02
7.22 69538.2 1534.48
7.24 66112 1496.14
7.26 56347.5 1381.28
7.28 46239.5 1251.23
7.3 36302.9 1108.73
7.32 29464.3 998.766
7.34 24907.3 918.411
7.36 20954.5 842.318
7.38 18752.7 796.856
7.4 17651.9 773.113
7.42 17224.9 763.717
7.44 17019.1 759.151
7.46 17047 759.773
7.48 17167.7 762.355
7.5 17159 762.254
7.52 17310.8 765.642
7.54 17500.8 769.77
7.56 17612.6 772.25
7.58 17905.3 778.617
7.6 18064.2 782.136
7.62 18363.3 788.519
7.64 18809 798.002
7.66 19206.2 806.468
7.68 19988.5 822.609
7.7 21229.1 847.837
7.72 23789.7 897.469
7.74 29159.6 993.663
7.76 38459 1141.17
7.78 55227.2 1367.45
7.8 79864.4 1644.46
7.82 108742 1918.85
7.84 137190 2155.25
7.86 155553 2294.97
7.88 152008 2268.67
7.9 137030 2154.01
7.92 114641 1970.18
7.94 96267.7 1805.44
7.96 83917.3 1685.65
7.98 79995.3 1645.77
8 89211.6 1738.01
8.02 104730 1883.11
8.04 122764 2038.83
8.06 135101 2138.77
8.08 134465 2133.75
8.1 121100 2024.94
8.12 104538 1881.36
8.14 83461 1681.06
8.16 65771.4 1492.31
8.18 52532.9 1333.67
8.2 40474.1 1170.63
8.22 31582.5 1034.11
8.24 25575.3 930.562
8.26 21806.4 859.293
8.28 20184.5 826.64
8.3 19379.4 810.054
8.32 18867.9 799.262
8.34 18670.4 794.95
8.36 18353.2 788.374
8.38 18231.8 785.72
8.4 18130.4 783.467
8.42 17926.8 779.151
8.44 17952.3 779.514
8.46 17914 778.925
8.48 17795.8 776.192
8.5 17931.5 779.18
8.52 17792.9 776.157
8.54 17823.8 776.906
8.56 17900.1 778.451
8.58 17856.4 777.596
8.6 17977.1 780.18
8.62 18204 785.144
8.64 18441.5 790.127
8.66 19181.4 805.916
8.68 20600.6 835.203
8.7 23370.9 889.517
8.72 28746.2 986.562
8.74 36996.3 1119.24
8.76 47586.3 1269.31
8.78 62309.9 1452.52
8.8 72053.8 1561.97
8.82 80118.9 1646.99
8.84 82290.9 1669.23
8.86 79145.6 1637.03
8.88 73016.9 1572.35
8.9 63373.5 1464.86
8.92 55879.3 1375.5
8.94 45771.1 1244.91
8.96 38920.8 1147.96
8.98 32074.8 1042.13
9 26456.9 946.506
9.02 22419.6 871.245
9.04 19956.1 822.002
9.06 18886.1 799.643
9.08 18248.4 786.149
9.1 18076.7 782.292
9.12 18033 781.44
9.14 18002.2 780.644
9.16 18198.9 784.939
9.18 18635.6 794.357
9.2 19702 816.751
9.22 22062.9 864.376
9.24 26160.4 941.134
9.26 33322.1 1062.22
9.28 42843.1 1204.38
9.3 53289.2 1343.25
9.32 64255.1 1475
9.34 70432.9 1544.25
9.36 73248.5 1574.86
9.38 72798.7 1570.01
9.4 71512.6 1556.09
9.42 66792.2 1503.83
9.44 59743.1 1422.28
9.46 53371.2 1344.32
9.48 46154.1 1250.07
9.5 37940.3 1133.41
9.52 32600.3 1050.57
9.54 26502.3 947.332
9.56 22086.9 864.824
9.58 19266.7 807.678
9.6 17530.4 770.409
9.62 16805 754.391
9.64 16333.8 743.579
9.66 16095.4 738.314
9.68 15992.4 735.894
9.7 15811.5 731.635
9.72 15734.6 729.867
9.74 15705.8 729.262
9.76 15583.2 726.468
9.78 15579.6 726.183
9.8 15552.6 725.82
9.82 15496.3 724.366
9.84 15495.1 724.329
9.86 15507 724.577
9.88 15485 724.077
9.9 15548.1 725.527
9.92 15526 725.06
9.94 15570.7 726.123
9.96 15691.1 728.891
9.98 15740.6 730.052
10 15954.8 734.972
10.02 16323.4 743.45
10.04 16968.5 757.954
10.06 18220.7 785.538
10.08 20082 824.582
10.1 22431.7 871.482
10.12 24860 917.422
10.14 26815.5 952.987
10.16 27678.6 968.073
10.18 27794.5 970.103
10.2 27750.3 969.31
10.22 27424.2 963.631
10.24 27744.6 969.158
10.26 27409 963.361
10.28 26484.1 947.045
10.3 25245.1 924.487
10.32 24075.8 902.877
10.34 22589.9 874.554
10.36 21275.4 848.769
10.38 20231.1 827.633
10.4 19079.5 803.769
10.42 18665.4 794.938
10.44 18466.6 790.858
10.46 18904.2 799.977
10.48 20098.6 824.888
10.5 22199.8 867.052
10.52 26148.9 940.87
10.54 32514.8 1049.34
10.56 39073.7 1150.2
10.58 46663.9 1256.96
10.6 51497.5 1320.47
10.62 53780.6 1349.45
10.64 54478.9 1358.14
10.66 54580 1359.5
10.68 57252.7 1392.31
10.7 62050.4 1449.46
10.72 65634.9 1490.74
10.74 68497.3 1522.94
10.76 67166.2 1508.08
10.78 63446.4 1465.7
10.8 58685.9 1409.65
10.82 53776.7 1349.36
10.84 49324.6 1292.26
10.86 45567.3 1242.17
10.88 41968.1 1192.05
10.9 38585.1 1142.97
10.92 35722 1099.79
10.94 32559.1 1049.96
10.96 30066.6 1009.01
10.98 27166.7 959.088
11 24398.7 908.825
11.02 22291.3 868.778
11.04 20166.3 826.315
11.06 18791.2 797.707
11.08 18031.9 781.348
11.1 17585.8 771.666
11.12 17357.8 766.604
11.14 17300.2 765.347
11.16 17215 763.595
11.18 17325.6 765.91
11.2 17672.6 773.55
11.22 18287 786.836
11.24 19656.4 815.738
11.26 21490.3 853.06
11.28 23650.7 894.876
11.3 25947.7 937.341
11.32 27342.2 962.21
11.34 27324.6 961.877
11.36 26894.1 954.276
11.38 26554.6 948.21
11.4 25995.6 938.207
11.42 25971.1 937.687
11.44 26169.8 941.358
11.46 26444.3 946.273
11.48 26508.9 947.388
11.5 25975.2 937.852
11.52 25317.7 925.839
11.54 24145.2 904.1
11.56 23167.1 885.726
11.58 21613.2 855.46
11.6 20486.6 832.888
11.62 19795.6 818.649
11.64 19444.4 811.346
11.66 20200.8 827.064
11.68 21628 855.754
11.7 23473.8 891.46
11.72 25020.9 920.425
11.74 25560.9 930.363
11.76 26064.2 939.41
11.78 26515.3 947.546
11.8 27249.2 960.525
11.82 28711.5 985.957
11.84 30477 1015.84
11.86 31305 1029.61
11.88 32008.1 1041.01
11.9 31886.9 1039.1
11.92 31227.3 1028.27
11.94 30597.1 1017.82
11.96 29376.9 997.337
11.98 28405.4 980.728
12 27600.8 966.759
12.02 26815.8 952.8
12.04 25811.1 934.898
12.06 24613.4 912.89
12.08 23630.7 894.549
12.1 22362.5 870.067
12.12 21285.5 849.103
12.14 20210.5 827.148
12.16 19050.4 803.167
12.18 18117.8 783.227
12.2 17038.1 759.566
12.22 16454.5 746.441
12.24 15995 735.813
12.26 15780.4 731.021
12.28 15775.6 730.902
12.3 15984.2 735.657
12.32 16345.3 743.858
12.34 16776.9 753.728
12.36 17158.5 762.237
12.38 17474 769.164
12.4 17457.6 768.821
12.42 17309.6 765.545
12.44 17213.2 763.358
12.46 17131.2 761.62
12.48 17063.9 760.101
12.5 17117.4 761.355
12.52 17123.1 761.436
12.54 17256.6 764.346
12.56 17454.3 768.801
12.58 17597.9 771.97
12.6 17749 775.153
12.62 17963.4 779.941
12.64 18413.2 789.629
12.66 19020.6 802.46
12.68 20315.7 829.413
12.7 22270.6 868.416
12.72 24169 904.675
12.74 26003.5 938.326
12.76 27183 959.345
12.78 26641.5 949.799
12.8 27394.1 963.037
12.82 27345 962.344
12.84 28021.8 974.047
12.86 28209.5 977.288
12.88 28912.7 989.449
12.9 28853.4 988.37
12.92 28871.4 988.72
12.94 28796.4 987.387
12.96 28855.8 988.496
12.98 29131.8 993.184
13 29143.3 993.383
13.02 28327.7 979.343
13.04 27944.7 972.787
13.06 27123.1 958.287
13.08 26179.5 941.518
13.1 24896.8 918.167
13.12 23964.9 900.744
13.14 22774.5 878.136
13.16 21491.4 853.06
13.18 20590.3 834.961
13.2 19889.7 820.66
13.22 19399 810.461
13.24 18974.3 801.523
13.26 19085.1 803.955
13.28 19736.9 817.453
13.3 20969.5 842.568
13.32 22430.3 871.488
13.34 23816.4 898.026
13.36 24238.2 905.948
13.38 24053.7 902.422
13.4 23488 891.775
13.42 22923.9 880.956
13.44 22416.1 871.217
13.46 22142.8 865.904
13.48 22084.7 864.829
13.5 22133.6 865.676
13.52 22114 865.35
13.54 22342.6 869.711
13.56 22768.9 878.017
13.58 23545.3 892.956
13.6 24581.3 912.244
13.62 25843.1 935.435
13.64 27602.5 966.747
13.66 29485.8 999.182
13.68 30538 1016.84
13.7 31015.9 1024.78
13.72 29979.6 1007.52
13.74 28297.3 978.84
13.76 26926 954.871
13.78 25216.6 924.017
13.8 24020.4 901.829
13.82 23628.3 894.369
13.84 23236.1 887.033
13.86 22959.5 881.7
13.88 22954.8 881.571
13.9 23135 885.08
13.92 23218.6 886.667
13.94 23479.7 891.598
13.96 24015.1 901.721
13.98 24115.6 903.67
14 24044.5 902.294
14.02 23591.4 893.729
14.04 23062.6 883.742
14.06 22114.4 865.344
14.08 20821.7 839.656
14.1 19700.2 816.698
14.12 18472.8 790.828
14.14 17416.3 767.939
14.16 16577.3 749.147
14.18 16113.5 738.678
14.2 15840.9 732.381
14.22 15752 730.291
14.24 15751.3 730.288
14.26 15748.4 730.233
14.28 15636.6 727.685
14.3 15588.3 726.436
14.32 15540.8 725.501
14.34 15407.6 722.159
14.36 15375.3 721.62
14.38 15366.2 721.351
14.4 15394.6 721.926
14.42 15344.1 720.873
14.44 15351.4 720.886
14.46 15479.4 723.95
14.48 15602.5 726.819
14.5 15909.2 734.065
14.52 16410.4 745.359
14.54 16998.9 758.674
14.56 17520.7 770.189
14.58 17988.6 780.482
14.6 18526.2 792.076
14.62 19052.8 803.101
14.64 19569.2 814.022
14.66 20308.6 829.256
14.68 20833.9 839.88
14.7 20642.4 835.987
14.72 20319.3 829.517
14.74 20022.5 823.368
14.76 19664.5 815.935
14.78 19373.4 809.918
14.8 19223.4 806.769
14.82 19192.3 806.274
14.84 19132.5 804.753
14.86 19167.8 805.671
14.88 19216.5 806.608
14.9 19431.3 811.133
14.92 19462.7 811.774
14.94 19579 814.193
14.96 19638.2 815.446
14.98 19770.4 818.153
15 19907.9 821.066
15.02 20135.1 825.631
15.04 20342.1 829.964
15.06 20627.5 835.687
15.08 20679.9 836.812
15.1 20480 832.75
15.12 20021.6 823.411
15.14 19455.1 811.608
15.16 18714.1 795.942
15.18 18045.3 781.69
15.2 17525.6 770.308
15.22 17230.3 763.889
15.24 16999.6 758.604
15.26 16924.5 757.024
15.28 16971.7 757.999
15.3 17146.2 761.985
15.32 17429.3 768.213
15.34 18044.1 781.641
15.36 18834.7 798.561
15.38 19677.7 816.281
15.4 20324.4 829.559
15.42 20713.8 837.463
15.44 20829.2 839.832
15.46 21071.5 844.676
15.48 21043.2 844.075
15.5 21096.9 845.172
15.52 20894.7 841.188
15.54 20575 834.67
15.56 20102.9 825.029
15.58 19689.9 816.529
15.6 19295.8 808.298
15.62 18947.2 800.929
15.64 18591.1 793.327
15.66 18486.7 791.211
15.68 18275.6 786.604
15.7 18344.2 788.146
15.72 18386.3 789.028
15.74 18461.7 790.626
15.76 18609.2 793.845
15.78 18762.1 797.012
15.8 19006.3 802.245
15.82 19151.7 805.207
15.84 19253.2 807.512
15.86 19378.3 809.993
15.88 19273.1 807.774
15.9 19150.2 805.288
15.92 18837.2 798.566
15.94 18309.1 787.385
15.96 17756 775.347
15.98 17282.5 765.011
16 16891.6 756.234
16.02 16655.7 750.98
16.04 16395.9 745.03
16.06 16273.1 742.316
16.08 16296.4 742.792
16.1 16447.9 746.302
16.12 16857.4 755.445
16.14 17503.3 769.908
16.16 18186.1 784.742
16.18 18761.9 797.023
16.2 19132.8 804.819
16.22 19330.8 809.01
16.24 19569.7 813.994
16.26 19728.4 817.407
16.28 19906.7 820.871
16.3 19859.2 820.009
16.32 19597.3 814.618
16.34 19396.3 810.426
16.36 19213.9 806.587
16.38 18938.6 800.77
16.4 18671.5 795.061
16.42 18489.1 791.256
16.44 18392.6 789.147
16.46 18116 783.201
16.48 17976.8 780.148
16.5 17842.6 777.29
16.52 17820.7 776.789
16.54 17814.2 776.576
16.56 17964.9 779.98
16.58 18146.9 783.863
16.6 18361.7 788.423
16.62 18711.2 795.931
16.64 19024.7 802.718
16.66 19112.7 804.34
16.68 18972.1 801.493
16.7 18780.1 797.436
16.72 18515.4 791.737
16.74 18128.8 783.547
16.76 17797.3 776.198
16.78 17266.8 764.671
16.8 16843.6 755.162
16.82 16414.7 745.585
16.84 16175.1 739.985
16.86 16031 736.763
16.88 15990.2 735.749
16.9 16046.5 737.137
16.92 16087.2 738.083
16.94 16050.4 737.12
16.96 15974.4 735.453
16.98 15829.1 732.175
17 15660.6 728.151
17.02 15518.1 724.822
17.04 15446 723.108
17.06 15359.3 721.222
17.08 15348.4 720.847
17.1 15318.3 720.221
17.12 15328.1 720.404
17.14 15291.3 719.631
17.16 15242.2 718.333
17.18 15190.8 717.162
17.2 15085.3 714.783
17.22 15030.8 713.361
17.24 14958.3 711.746
17.26 14852.4 709.11
17.28 14787.7 707.578
17.3 14772.8 707.341
17.32 14832.9 708.708
17.34 14963.8 711.765
17.36 15078.1 714.539
17.38 15144.6 715.988
17.4 15254.6 718.794
17.42 15272.1 719.098
17.44 15294.5 719.606
17.46 15222.7 717.873
17.48 15124.3 715.666
17.5 15024.6 713.222
17.52 14932.4 711.125
17.54 14839.3 708.786
17.56 14843.8 709.021
17.58 14930.3 711.008
17.6 15153.7 716.259
17.62 15432.7 722.862
17.64 15625.7 727.344
17.66 15781.2 731.016
17.68 15836.3 732.257
17.7 15832.3 732.13
17.72 15756.3 730.453
17.74 15722.4 729.608
17.76 15690.3 728.907
17.78 15594.8 726.744
17.8 15509.8 724.514
17.82 15465.8 723.731
17.84 15429.3 722.77
17.86 15429.4 722.791
17.88 15409.2 722.365
17.9 15427.3 722.76
17.92 15454.9 723.332
17.94 15426.2 722.791
17.96 15445.1 723.184
17.98 15506.4 724.479
18 15624 727.342
18.02 15794.1 731.32
18.04 16023 736.597
18.06 16260.1 741.97
18.08 16322.5 743.398
18.1 16331.1 743.53
18.12 16291.2 742.824
18.14 16255.2 741.806
18.16 16269.8 742.161
18.18 16265.1 742.002
18.2 16304.2 743.122
18.22 16327.1 743.511
18.24 16327 743.581
18.26 16407.9 745.358
18.28 16493.9 747.289
18.3 16578.2 749.136
18.32 16626.3 750.348
18.34 16497.6 747.409
18.36 16343.2 743.812
18.38 16178 740.109
18.4 16020.2 736.514
18.42 15855.8 732.785
18.44 15674.3 728.467
18.46 15507.9 724.589
18.48 15404.3 722.253
18.5 15309 719.939
18.52 15231.8 718.12
18.54 15161.9 716.66
18.56 15154.7 716.153
18.58 15164.4 716.643
18.6 15148.5 716.15
18.62 15177.8 716.786
18.64 15179.7 717.067
18.66 15188.9 717.024
18.68 15106.6 715.217
18.7 15050 713.891
18.72 14987.3 712.38
18.74 14883.9 709.76
18.76 14736.5 706.481
18.78 14607.8 703.199
18.8 14402.4 698.399
18.82 14331.9 696.613
18.84 14278.2 695.361
18.86 14272.5 695.059
18.88 14321.3 696.446
18.9 14364.6 697.383
18.92 14504.6 700.73
18.94 14639.6 704.115
18.96 14766.8 707.133
18.98 14845 708.836
19 14958.6 711.775
19.02 14984.5 712.205
19.04 14963.6 711.905
19.06 14888 709.931
19.08 14722.7 706.055
19.1 14514.8 700.981
19.12 14278.2 695.351
19.14 14063.8 690.107
19.16 13915.4 686.375
19.18 13795 683.514
19.2 13718.4 681.496
19.22 13628.8 679.287
19.24 13571.5 677.926
19.26 13528.4 676.757
19.28 13532.7 677.01
19.3 13526.7 676.669
19.32 13559.9 677.67
19.34 13615.6 678.887
19.36 13680.2 680.71
19.38 13723.6 681.601
19.4 13710.1 681.392
19.42 13668.7 680.303
19.44 13648.3 679.714
19.46 13583.9 678.358
19.48 13558.4 677.416
19.5 13551.3 677.39
19.52 13543.4 677.235
19.54 13589.6 678.273
19.56 13671.8 680.454
19.58 13766.6 682.717
19.6 13859.1 684.882
19.62 13940.5 687.047
19.64 13941.2 687.082
19.66 13926.2 686.725
19.68 13901.2 686.139
19.7 13860 684.947
19.72 13760.9 682.525
19.74 13660.8 680.176
19.76 13565.7 677.727
19.78 13424 674.145
19.8 13259.6 670.003
19.82 13136.4 666.876
19.84 12994 663.333
19.86 12884 660.48
19.88 12781.5 657.909
19.9 12690.6 655.569
19.92 12642.1 654.175
19.94 12643.3 654.266
19.96 12637.3 654.126
19.98 12631 654.06
20 12669.7 654.978
20.02 12674.5 655.102
20.04 12677.6 655.164
20.06 12658.5 654.614
20.08 12675.2 655.093
20.1 12669.9 654.973
20.12 12671.1 655.112
20.14 12684.8 655.276
20.16 12747.1 657.11
20.18 12856.4 659.69
20.2 12976.5 662.857
20.22 13088.2 665.707
20.24 13166.1 667.764
20.26 13196.7 668.353
20.28 13202.6 668.6
20.3 13193.3 668.35
20.32 13166.2 667.749
20.34 13090.6 665.678
20.36 13005.1 663.616
20.38 12913.1 661.301
20.4 12853.4 659.657
20.42 12783.6 657.837
20.44 12683.3 655.309
20.46 12624.5 653.885
20.48 12584 652.753
20.5 12519.8 651.072
20.52 12512 650.827
20.54 12517.8 651.109
20.56 12557.8 652.095
20.58 12578.5 652.651
20.6 12590 652.929
20.62 12594.7 652.957
20.64 12600.4 653.147
20.66 12584 652.823
20.68 12549.6 651.878
20.7 12551.7 651.816
20.72 12545.9 651.834
20.74 12550 651.918
20.76 12604 653.172
20.78 12671.9 655.018
20.8 12754.2 657.24
20.82 12814 658.662
20.84 12858.7 659.839
20.86 12907.5 661.004
20.88 12915.4 661.374
20.9 12947.3 662.096
20.92 12923.1 661.364
20.94 12924.5 661.612
20.96 12903 660.944
20.98 12883.9 660.486
21 12858.8 659.841
21.02 12811.7 658.708
21.04 12734.5 656.683
21.06 12667.1 654.844
21.08 12551.2 651.868
21.1 12443.5 649.07
21.12 12334.6 646.306
21.14 12262.7 644.335
21.16 12170.1 641.998
21.18 12096.4 639.992
21.2 12046.8 638.629
21.22 11969.5 636.598
21.24 11929.4 635.564
21.26 11899.7 634.671
21.28 11864.6 633.891
21.3 11867.3 633.839
21.32 11872.6 633.969
21.34 11897.1 634.651
21.36 11933.7 635.734
21.38 11950 636.085
21.4 11959.3 636.461
21.42 11958.9 636.273
21.44 11922.9 635.408
21.46 11881 634.211
21.48 11850.8 633.427
21.5 11780.3 631.514
21.52 11754.8 630.904
21.54 11699.3 629.378
21.56 11666.5 628.441
21.58 11659.8 628.367
21.6 11661.1 628.464
21.62 11643.4 627.722
21.64 11632.8 627.556
21.66 11628.1 627.635
21.68 11609.2 626.829
21.7 11597.1 626.589
21.72 11593.2 626.593
21.74 11551.8 625.44
21.76 11517 624.489
21.78 11436.7 622.269
21.8 11358.6 620.185
21.82 11301.1 618.547
21.84 11242.2 616.99
21.86 11222.4 616.438
21.88 11184.8 615.347
21.9 11203 615.801
21.92 11237.7 616.941
21.94 11271.6 617.758
21.96 11298.3 618.545
21.98 11270.8 617.723
22 11237.2 616.893
22.02 11208.6 616.091
22.04 11162.2 614.702
22.06 11093 612.91
22.08 11083.6 612.565
22.1 11042.3 611.417
22.12 11015.5 610.812
22.14 10993 610.059
22.16 10958.9 609.143
22.18 10921.6 608.072
22.2 10905.1 607.724
22.22 10906.6 607.657
22.24 10897.1 607.522
22.26 10889.6 607.202
22.28 10886.1 607.081
22.3 10866.6 606.577
22.32 10838.5 605.798
22.34 10760.6 603.629
22.36 10747.1 603.18
22.38 10689.1 601.64
22.4 10679.9 601.336
22.42 10636.5 600.115
22.44 10619.3 599.643
22.46 10620 599.699
22.48 10616 599.512
22.5 10641.2 600.28
22.52 10650.7 600.528
22.54 10711.9 602.199
22.56 10731.7 602.752
22.58 10726.4 602.673
22.6 10733 602.773
22.62 10707.5 602.215
22.64 10659.1 600.746
22.66 10626.5 599.883
22.68 10611.3 599.338
22.7 10553.3 597.826
22.72 10536.3 597.308
22.74 10496.1 596.105
22.76 10483.9 595.726
22.78 10473 595.489
22.8 10465.3 595.291
22.82 10480.5 595.73
22.84 10458.9 595.129
22.86 10452.5 594.782
22.88 10427.9 594.262
22.9 10387.7 593.061
22.92 10354 592.078
22.94 10307.6 590.866
22.96 10311.9 590.874
22.98 10281.5 589.987
23 10298.1 590.507
23.02 10289 590.242
23.04 10290.2 590.306
23.06 10268.7 589.521
23.08 10252.3 589.279
23.1 10241.1 588.904
23.12 10213.3 588.038
23.14 10183.7 587.248
23.16 10169.3 586.618
23.18 10112 585.234
23.2 10112.4 585.163
23.22 10103.6 584.932
23.24 10089.1 584.483
23.26 10076.2 584.105
23.28 10059 583.533
23.3 10040.7 583.146
23.32 10025.1 582.546
23.34 10000 581.886
23.36 10020.9 582.453
23.38 9984.3 581.492
23.4 9973.96 581.227
23.42 9988.48 581.473
23.44 9981.79 581.382
23.46 9981.51 581.3
23.48 9991.36 581.689
23.5 10004.6 582.019
23.52 10030.9 582.853
23.54 10023 582.419
23.56 10016.9 582.412
23.58 10004.3 582.066
23.6 9975.71 581.142
23.62 9941.51 580.117
23.64 9916.81 579.452
23.66 9887.88 578.642
23.68 9836.47 577.26
23.7 9808.88 576.256
23.72 9764.03 574.957
23.74 9750.9 574.618
23.76 9735.89 574.129
23.78 9729.65 574.014
23.8 9699.65 573.03
23.82 9678.2 572.535
23.84 9672.22 572.278
23.86 9667.27 571.999
23.88 9663.69 572.121
23.9 9634.24 571.118
23.92 9597.52 570.093
23.94 9578.43 569.453
23.96 9561.66 569.009
23.98 9541.91 568.422
24 9517.29 567.622
24.02 9506.72 567.387
24.04 9524.6 567.874
24.06 9477.96 566.471
24.08 9459.49 565.953
24.1 9423.88 564.876
24.12 9390.21 563.845
24.14 9304.97 561.371
24.16 9279.41 560.506
24.18 9225.34 558.885
24.2 9210.5 558.433
24.22 9170.21 557.264
24.24 9162.29 556.983
24.26 9122.23 555.748
24.28 9119.18 555.618
24.3 9111.95 555.462
24.32 9095.89 555.055
24.34 9079.51 554.362
24.36 9085.61 554.695
24.38 9041.44 553.28
24.4 9033.32 553.047
24.42 9041.97 553.338
24.44 9033.14 552.993
24.46 9022.07 552.77
24.48 9006.7 552.255
24.5 9008.64 552.228
24.52 9006.82 552.265
24.54 8996.65 551.888
24.56 8999.04 552.037
24.58 9007.72 552.26
24.6 9010.48 552.285
24.62 8990.3 551.749
24.64 8952.14 550.586
24.66 8936.35 550.084
24.68 8890.45 548.578
24.7 8858.12 547.698
24.72 8805.93 546.105
24.74 8780.27 545.194
24.76 8769.65 544.891
24.78 8744.05 544.144
24.8 8690.95 542.479
24.82 8700.33 542.703
24.84 8670.03 541.778
24.86 8674.7 542.068
24.88 8625.7 540.376
24.9 8624.77 540.449
24.92 8598.12 539.539
24.94 8587.94 539.283
24.96 8585.6 539.148
24.98 8564.94 538.456
25 8574.46 538.698
25.02 8570.14 538.828
25.04 8576.44 538.821
25.06 8566.53 538.651
25.08 8528.26 537.316
25.1 8521.32 537.204
25.12 8480.55 535.921
25.14 8475.47 535.669
25.16 8455.89 535.041
25.18 8442.23 534.681
25.2 8439.94 534.622
25.22 8413.08 533.706
25.24 8377.83 532.602
25.26 8374 532.412
25.28 8351.89 531.811
25.3 8346.36 531.608
25.32 8325.71 530.972
25.34 8325.54 530.892
25.36 8313.21 530.535
25.38 8297.64 530.043
25.4 8295.24 529.896
25.42 8280.13 529.534
25.44 8254.53 528.774
25.46 8282.03 529.459
25.48 8275.9 529.386
25.5 8231.25 527.931
25.52 8237.78 528.181
25.54 8232.4 527.925
25.56 8252.99 528.525
25.58 8251.37 528.65
25.6 8223.16 527.716
25.62 8216.84 527.364
25.64 8187.57 526.573
25.66 8204.27 527.085
25.68 8201.08 526.933
25.7 8176.04 526.126
25.72 8161.58 525.716
25.74 8137.43 524.94
25.76 8115.89 524.232
25.78 8112.73 524.045
25.8 8116.74 524.304
25.82 8112.47 524.066
25.84 8103.22 523.801
25.86 8086.78 523.301
25.88 8076.79 522.942
25.9 8068.59 522.737
25.92 8065.07 522.519
25.94 8047.87 522.022
25.96 8030.85 521.446
25.98 8013.91 520.85
26 8023.65 521.35
26.02 8025.2 521.214
26.04 8011.44 520.817
26.06 7984.28 519.972
26.08 7971.82 519.467
26.1 7947.86 518.745
26.12 7922.97 517.994
26.14 7896.84 517.049
26.16 7874.41 516.451
26.18 7880.8 516.473
26.2 7896.85 517.188
26.22 7874.79 516.242
26.24 7858.25 515.854
26.26 7840.69 515.238
26.28 7823.44 514.645
26.3 7791.32 513.667
26.32 7793.4 513.697
26.34 7781.73 513.277
26.36 7764.97 512.797
26.38 7730.52 511.638
26.4 7716.22 511.098
26.42 7678.22 509.948
26.44 7677.1 509.781
26.46 7651.04 508.953
26.48 7608.85 507.554
26.5 7588.29 506.933
26.52 7590.08 506.976
26.54 7550.45 505.701
26.56 7583.63 506.666
26.58 7585.92 506.856
26.6 7546.4 505.516
26.62 7536.37 505.096
26.64 7528.12 504.884
26.66 7550.96 505.564
26.68 7552.74 505.748
26.7 7524.03 504.741
26.72 7496.93 503.814
26.74 7508.97 504.274
26.76 7471.68 502.966
26.78 7410.95 500.865
26.8 7416.35 501.21
26.82 7431.57 501.581
26.84 7390.99 500.334
26.86 7384.92 499.961
26.88 7390.9 500.268
26.9 7374.32 499.669
26.92 7362.94 499.352
26.94 7318.98 497.779
26.96 7299.22 497.137
26.98 7256.19 495.676
27 7225.05 494.675
27.02 7271.75 496.137
27.04 7277.66 496.403
27.06 7244.03 495.294
27.08 7237.84 494.982
27.1 7222.99 494.568
27.12 7206.99 493.982
27.14 7192.76 493.53
27.16 7174.92 492.942
27.18 7168 492.608
27.2 7117.84 490.952
27.22 7128.1 491.323
27.24 7114.41 490.654
27.26 7087.1 489.911
27.28 7083.72 489.79
27.3 7082.17 489.601
27.32 7036.87 488.239
27.34 7028.79 487.753
27.36 7045.74 488.398
27.38 7027.92 487.81
27.4 7007.16 487.215
27.42 6983.37 486.159
27.44 6954.84 485.378
27.46 6948.08 485.015
27.48 6905.09 483.436
27.5 6929.22 484.487
27.52 6944.57 484.842
27.54 6949.44 485.016
27.56 6901.73 483.513
27.58 6906.8 483.62
27.6 6859.04 481.884
27.62 6843.93 481.443
27.64 6851.76 481.526
27.66 6849.31 481.706
27.68 6884.93 482.614
27.7 6842.34 481.463
27.72 6811.16 480.144
27.74 6804.12 479.918
27.76 6798.27 479.914
27.78 6773.08 478.86
27.8 6719.3 476.837
27.82 6676.12 475.523
27.84 6683.72 475.803
27.86 6668.8 475.167
27.88 6675.37 475.502
27.9 6675.85 475.29
27.92 6641.6 474.197
27.94 6592.92 472.581
27.96 6585.43 472.12
27.98 6552.58 470.937
28 6542.22 470.717
28.02 6515.29 469.77
28.04 6544.66 470.746
28.06 6570.41 471.492
28.08 6557.79 471.33
28.1 6550.67 470.952
28.12 6551.28 470.9
28.14 6429.62 466.726
28.16 6493.74 468.844
28.18 6544.77 470.856
28.2 6516.12 469.731
28.22 6475.44 468.19
28.24 6471.7 467.978
28.26 6444.08 467.19
28.28 6420.16 466.292
28.3 6436.73 466.816
28.32 6437.21 466.93
28.34 6359.08 464.097
28.36 6441.58 466.912
28.38 6382.61 464.841
28.4 6372.83 464.521
28.42 6345.06 463.469
28.44 6304.48 462.178
28.46 6317.78 462.399
28.48 6321.45 462.54
28.5 6285.28 461.459
28.52 6179.07 457.24
28.54 6177.79 457.449
28.56 6250.21 460.047
28.58 6249.74 460.065
28.6 6237.04 459.544
28.62 6178.34 457.346
28.64 6171.44 457.119
28.66 6204.44 458.199
28.68 6132.07 455.845
28.7 6121.31 455.253
28.72 6160.49 456.616
28.74 6133.26 455.84
28.76 6092.18 454.029
28.78 6144.64 456.26
28.8 6139.46 455.984
28.82 6081.3 453.647
28.84 6027.78 451.831
28.86 6026.59 451.704
28.88 6051.39 452.806
28.9 6020.97 451.306
28.92 5980.94 449.876
28.94 5973.73 449.845
28.96 5962.08 449.431
28.98 6047.48 452.4
29 5984.65 450.154
29.02 5938.35 448.509
29.04 5872.92 445.907
29.06 5847.31 444.91
29.08 5818.67 443.922
29.1 5914.66 447.563
29.12 5919.51 447.658
29.14 5850.37 445.296
29.16 5870.64 445.745
29.18 5873.99 445.706
29.2 5830.78 444.436
29.22 5732.85 440.495
29.24 5749.83 441.298
29.26 5811.41 443.546
29.28 5786.81 442.785
29.3 5740 440.785
29.32 5719.12 440.12
29.34 5724.12 440.353
29.36 5665.54 437.888
29.38 5676.77 438.205
29.4 5588.33 435.042
29.42 5541.94 433.197
29.44 5622.32 436.428
29.46 5649.48 437.375
29.48 5628.79 436.578
29.5 5567.24 434.149
29.52 5549.36 433.448
29.54 5562.12 433.915
29.56 5607.09 435.865
29.58 5544.94 433.195
29.6 5561.57 433.923
29.62 5566.97 434.322
29.64 5592.22 435.306
29.66 5583.08 434.37
29.68 5508.54 432.12
29.7 5496.16 431.171
29.72 5501.8 431.808
29.74 5478.94 430.585
29.76 5474.42 430.389
29.78 5456.02 429.887
29.8 5314.22 424.279
29.82 5442.94 429.163
29.84 5375.34 426.627
29.86 5358.85 425.974
29.88 5437.09 429.407
29.9 5398.48 427.235
29.92 5337.41 424.978
29.94 5254.38 421.78
29.96 5359.42 426.114
29.98 5379.58 427.015
30 5410.63 427.895
30.02 5309.2 423.946
30.04 5294.54 423.303
30.06 5314.9 424.221
30.08 5231.76 420.995
30.1 5178.43 418.799
30.12 5191.83 419.406
30.14 5179.26 418.371
30.16 5178.88 418.699
30.18 5194.41 419.522
30.2 5002.65 411.632
30.22 5022.15 412.167
30.24 5040.18 413.073
30.26 5130.08 416.942
30.28 5064.4 414.367
30.3 5028.9 412.505
30.32 4931.61 408.478
30.34 5011.58 411.619
30.36 5090.74 415.761
30.38 4990.31 410.673
30.4 4909.48 407.868
30.42 4923.91 408.005
30.44 5023.4 412.436
30.46 5085.41 415.034
30.48 5106.07 415.908
30.5 5058.49 413.964
30.52 4964.51 409.795
30.54 5058 413.515
30.56 5214.54 420.477
30.58 5155.38 417.753
30.6 5081.47 414.826
30.62 4865.01 405.571
30.64 4866.08 406.086
30.66 4829.29 404.772
30.68 5025.56 412.047
30.7 4862.32 406.098
30.72 4728.57 399.91
30.74 4724.73 399.715
30.76 4853.45 405.676
30.78 4779.46 401.995
30.8 4949.33 409.506
30.82 4870.24 406.151
30.84 4780.41 402.701
30.86 4830.49 404.135
30.88 4830.34 404.503
30.9 4581.97 393.877
30.92 4703.87 399.516
30.94 4745.29 400.491
30.96 4727.09 400.491
30.98 4667.39 397.215
31 4857.15 405.345
31.02 4837.58 404.566
31.04 4577.07 394.034
31.06 4607.07 394.917
31.08 4823.68 404.03
31.1 4858.05 405.712
31.12 5034.33 412.598
31.14 4704.75 399.669
31.16 4572.69 392.728
31.18 4335.81 383.05
31.2 4387.18 385.312
31.22 4626.57 396.079
31.24 4642.13 396.593
31.26 4811.36 403.973
31.28 4821.45 403.557
31.3 4612.73 395.575
31.32 4326.25 382.862
31.34 4329.66 383.283
31.36 4384.82 384.547
31.38 4430.07 388.064
31.4 4520.77 390.425
31.42 4378.48 385.55
31.44 4519.72 390.565
31.46 4695.83 398.8
31.48 4610.47 396.274
31.5 4954.55 408.817
31.52 4821.13 403.802
31.54 4713.49 399.242
31.56 4501.54 391.323
31.58 4628.25 394.346
31.6 4789.17 403.316
31.62 4517.3 390.887
31.64 3995.48 367.549
31.66 4403.79 387.315
31.68 4534.86 389.447
31.7 4356.89 385.492
31.72 4527.16 391.781
31.74 4237.24 377.321
31.76 4213.87 378.59
31.78 3741.23 354.84
31.8 3235.84 331.814
31.82 3742.9 355.742
31.84 4647.38 398.496
31.86 3993.6 366.536
31.88 3797.33 358.248
31.9 4195.9 379.288
31.92 3742.9 355.742
31.94 3697.78 351.838
31.96 3835.94 359.154
31.98 4096 369.825
32 3045.74 317.529
32.02 3045.74 327.942
32.04 3686.4 362.039
32.06 3003.73 295.603
32.08 4096 373.912
32.1 3413.33 362.039
32.12 0 0
32.14 0 0
32.16 0 0
32.18 0 0
32.2 0 0
32.22 0 0
32.24 0 0
32.26 0 0
32.28 0 0
